Interarrival Time (ms)	% Interarrivals	Running Sum	Counts
1.000	0.103	6051	6051
2.000	0.149	8744	2693
3.000	0.318	18625	9881
4.000	0.357	20946	2321
5.000	0.371	21736	790
6.000	0.379	22257	521
7.000	0.386	22620	363
8.000	0.390	22883	263
9.000	0.394	23097	214
10.000	0.397	23271	174
11.000	0.399	23403	132
12.000	0.401	23548	145
13.000	0.404	23697	149
14.000	0.406	23805	108
15.000	0.408	23912	107
16.000	0.409	24012	100
17.000	0.411	24086	74
18.000	0.412	24171	85
19.000	0.414	24262	91
20.000	0.415	24337	75
21.000	0.416	24411	74
22.000	0.417	24488	77
23.000	0.418	24544	56
24.000	0.420	24621	77
25.000	0.421	24692	71
26.000	0.422	24753	61
27.000	0.423	24810	57
28.000	0.424	24869	59
29.000	0.425	24927	58
30.000	0.426	24985	58
31.000	0.427	25041	56
32.000	0.428	25101	60
33.000	0.429	25145	44
34.000	0.429	25190	45
35.000	0.430	25249	59
36.000	0.431	25309	60
37.000	0.432	25359	50
38.000	0.433	25420	61
39.000	0.434	25481	61
40.000	0.435	25531	50
41.000	0.436	25578	47
42.000	0.437	25650	72
43.000	0.438	25712	62
44.000	0.440	25832	120
45.000	0.443	25972	140
46.000	0.445	26114	142
47.000	0.448	26295	181
48.000	0.454	26619	324
49.000	0.488	28651	2032
50.000	0.557	32645	3994
51.000	0.569	33349	704
52.000	0.572	33527	178
53.000	0.574	33654	127
54.000	0.575	33739	85
55.000	0.576	33797	58
56.000	0.577	33842	45
57.000	0.578	33884	42
58.000	0.578	33919	35
59.000	0.579	33986	67
60.000	0.581	34057	71
61.000	0.582	34108	51
62.000	0.582	34149	41
63.000	0.583	34203	54
64.000	0.584	34246	43
65.000	0.585	34299	53
66.000	0.585	34341	42
67.000	0.586	34379	38
68.000	0.587	34417	38
69.000	0.588	34468	51
70.000	0.589	34518	50
71.000	0.589	34560	42
72.000	0.590	34606	46
73.000	0.591	34655	49
74.000	0.591	34691	36
75.000	0.592	34723	32
76.000	0.593	34773	50
77.000	0.593	34806	33
78.000	0.594	34854	48
79.000	0.595	34892	38
80.000	0.596	34943	51
81.000	0.596	34973	30
82.000	0.597	35014	41
83.000	0.598	35056	42
84.000	0.599	35133	77
85.000	0.601	35222	89
86.000	0.603	35346	124
87.000	0.605	35502	156
88.000	0.608	35633	131
89.000	0.611	35817	184
90.000	0.613	35934	117
91.000	0.616	36119	185
92.000	0.619	36330	211
93.000	0.624	36612	282
94.000	0.630	36934	322
95.000	0.634	37165	231
96.000	0.638	37411	246
97.000	0.642	37641	230
98.000	0.645	37844	203
99.000	0.649	38046	202
100.000	0.652	38256	210
101.000	0.656	38448	192
102.000	0.658	38596	148
103.000	0.660	38740	144
104.000	0.662	38853	113
105.000	0.664	38974	121
106.000	0.667	39107	133
107.000	0.669	39214	107
108.000	0.671	39338	124
109.000	0.672	39444	106
110.000	0.675	39581	137
111.000	0.677	39719	138
112.000	0.679	39850	131
113.000	0.682	39999	149
114.000	0.684	40125	126
115.000	0.687	40269	144
116.000	0.690	40444	175
117.000	0.692	40591	147
118.000	0.695	40755	164
119.000	0.698	40939	184
120.000	0.701	41120	181
121.000	0.704	41317	197
122.000	0.707	41488	171
123.000	0.710	41644	156
124.000	0.713	41800	156
125.000	0.715	41930	130
126.000	0.717	42041	111
127.000	0.719	42154	113
128.000	0.720	42259	105
129.000	0.722	42361	102
130.000	0.724	42479	118
131.000	0.726	42583	104
132.000	0.728	42678	95
133.000	0.730	42808	130
134.000	0.732	42916	108
135.000	0.734	43035	119
136.000	0.736	43167	132
137.000	0.738	43275	108
138.000	0.740	43406	131
139.000	0.742	43515	109
140.000	0.744	43622	107
141.000	0.745	43708	86
142.000	0.747	43800	92
143.000	0.748	43891	91
144.000	0.750	43973	82
145.000	0.752	44082	109
146.000	0.753	44176	94
147.000	0.755	44273	97
148.000	0.756	44361	88
149.000	0.758	44447	86
150.000	0.759	44526	79
151.000	0.760	44603	77
152.000	0.761	44662	59
153.000	0.763	44738	76
154.000	0.764	44812	74
155.000	0.765	44888	76
156.000	0.767	44963	75
157.000	0.768	45028	65
158.000	0.769	45098	70
159.000	0.770	45165	67
160.000	0.772	45264	99
161.000	0.773	45350	86
162.000	0.775	45440	90
163.000	0.776	45527	87
164.000	0.777	45596	69
165.000	0.779	45675	79
166.000	0.780	45769	94
167.000	0.782	45853	84
168.000	0.784	45959	106
169.000	0.785	46047	88
170.000	0.787	46148	101
171.000	0.788	46236	88
172.000	0.790	46313	77
173.000	0.792	46440	127
174.000	0.793	46526	86
175.000	0.795	46615	89
176.000	0.796	46690	75
177.000	0.798	46777	87
178.000	0.799	46847	70
179.000	0.800	46919	72
180.000	0.801	46986	67
181.000	0.802	47052	66
182.000	0.804	47133	81
183.000	0.805	47195	62
184.000	0.805	47243	48
185.000	0.806	47301	58
186.000	0.807	47363	62
187.000	0.808	47410	47
188.000	0.809	47461	51
189.000	0.810	47513	52
190.000	0.811	47580	67
191.000	0.812	47639	59
192.000	0.813	47691	52
193.000	0.814	47756	65
194.000	0.815	47814	58
195.000	0.816	47867	53
196.000	0.817	47934	67
197.000	0.818	47984	50
198.000	0.819	48051	67
199.000	0.820	48110	59
200.000	0.821	48179	69
201.000	0.823	48251	72
202.000	0.824	48326	75
203.000	0.825	48399	73
204.000	0.826	48476	77
205.000	0.828	48569	93
206.000	0.829	48641	72
207.000	0.830	48703	62
208.000	0.832	48796	93
209.000	0.833	48871	75
210.000	0.834	48935	64
211.000	0.835	48984	49
212.000	0.836	49023	39
213.000	0.837	49078	55
214.000	0.838	49123	45
215.000	0.838	49161	38
216.000	0.839	49204	43
217.000	0.840	49257	53
218.000	0.841	49305	48
219.000	0.842	49365	60
220.000	0.842	49415	50
221.000	0.843	49451	36
222.000	0.844	49493	42
223.000	0.845	49544	51
224.000	0.845	49589	45
225.000	0.846	49628	39
226.000	0.847	49680	52
227.000	0.848	49731	51
228.000	0.849	49797	66
229.000	0.850	49846	49
230.000	0.851	49908	62
231.000	0.852	49962	54
232.000	0.853	50005	43
233.000	0.853	50054	49
234.000	0.854	50115	61
235.000	0.856	50180	65
236.000	0.856	50237	57
237.000	0.857	50290	53
238.000	0.858	50338	48
239.000	0.859	50400	62
240.000	0.860	50453	53
241.000	0.861	50512	59
242.000	0.862	50579	67
243.000	0.863	50641	62
244.000	0.864	50706	65
245.000	0.865	50752	46
246.000	0.866	50806	54
247.000	0.867	50860	54
248.000	0.868	50915	55
249.000	0.869	50963	48
250.000	0.870	51008	45
251.000	0.870	51056	48
252.000	0.871	51108	52
253.000	0.872	51155	47
254.000	0.873	51206	51
255.000	0.874	51249	43
256.000	0.874	51289	40
257.000	0.875	51334	45
258.000	0.876	51382	48
259.000	0.877	51425	43
260.000	0.878	51472	47
261.000	0.878	51520	48
262.000	0.879	51567	47
263.000	0.880	51605	38
264.000	0.880	51642	37
265.000	0.881	51675	33
266.000	0.882	51709	34
267.000	0.882	51753	44
268.000	0.883	51779	26
269.000	0.884	51829	50
270.000	0.884	51873	44
271.000	0.885	51922	49
272.000	0.886	51954	32
273.000	0.887	52006	52
274.000	0.887	52052	46
275.000	0.888	52100	48
276.000	0.889	52139	39
277.000	0.890	52173	34
278.000	0.890	52213	40
279.000	0.891	52245	32
280.000	0.891	52281	36
281.000	0.892	52318	37
282.000	0.893	52349	31
283.000	0.893	52393	44
284.000	0.894	52428	35
285.000	0.895	52472	44
286.000	0.895	52515	43
287.000	0.896	52553	38
288.000	0.897	52597	44
289.000	0.897	52638	41
290.000	0.898	52674	36
291.000	0.899	52713	39
292.000	0.899	52748	35
293.000	0.900	52782	34
294.000	0.900	52804	22
295.000	0.901	52848	44
296.000	0.902	52884	36
297.000	0.902	52925	41
298.000	0.903	52963	38
299.000	0.904	53013	50
300.000	0.904	53046	33
301.000	0.905	53084	38
302.000	0.906	53137	53
303.000	0.906	53165	28
304.000	0.907	53199	34
305.000	0.908	53240	41
306.000	0.908	53266	26
307.000	0.909	53310	44
308.000	0.910	53346	36
309.000	0.910	53389	43
310.000	0.911	53423	34
311.000	0.912	53466	43
312.000	0.912	53502	36
313.000	0.913	53543	41
314.000	0.914	53581	38
315.000	0.914	53623	42
316.000	0.915	53657	34
317.000	0.915	53686	29
318.000	0.916	53719	33
319.000	0.916	53747	28
320.000	0.917	53779	32
321.000	0.917	53803	24
322.000	0.918	53824	21
323.000	0.918	53847	23
324.000	0.918	53873	26
325.000	0.919	53896	23
326.000	0.919	53931	35
327.000	0.920	53970	39
328.000	0.921	54014	44
329.000	0.922	54061	47
330.000	0.923	54110	49
331.000	0.923	54134	24
332.000	0.923	54156	22
333.000	0.924	54170	14
334.000	0.924	54185	15
335.000	0.924	54198	13
336.000	0.924	54211	13
337.000	0.924	54221	10
338.000	0.925	54238	17
339.000	0.925	54255	17
340.000	0.925	54268	13
341.000	0.925	54277	9
342.000	0.926	54293	16
343.000	0.926	54306	13
344.000	0.926	54328	22
345.000	0.926	54340	12
346.000	0.927	54346	6
347.000	0.927	54364	18
348.000	0.927	54378	14
349.000	0.927	54395	17
350.000	0.928	54414	19
351.000	0.928	54432	18
352.000	0.928	54447	15
353.000	0.929	54471	24
354.000	0.929	54482	11
355.000	0.929	54495	13
356.000	0.929	54513	18
357.000	0.930	54527	14
358.000	0.930	54532	5
359.000	0.930	54543	11
360.000	0.930	54555	12
361.000	0.930	54567	12
362.000	0.930	54577	10
363.000	0.931	54583	6
364.000	0.931	54592	9
365.000	0.931	54601	9
366.000	0.931	54609	8
367.000	0.931	54619	10
368.000	0.931	54626	7
369.000	0.931	54630	4
370.000	0.932	54640	10
371.000	0.932	54652	12
372.000	0.932	54666	14
373.000	0.932	54674	8
374.000	0.932	54686	12
375.000	0.933	54695	9
376.000	0.933	54706	11
377.000	0.933	54714	8
378.000	0.933	54722	8
379.000	0.933	54728	6
380.000	0.933	54744	16
381.000	0.933	54751	7
382.000	0.934	54756	5
383.000	0.934	54762	6
384.000	0.934	54771	9
385.000	0.934	54781	10
386.000	0.934	54785	4
387.000	0.934	54799	14
388.000	0.934	54803	4
389.000	0.935	54813	10
390.000	0.935	54821	8
391.000	0.935	54829	8
392.000	0.935	54834	5
393.000	0.935	54848	14
394.000	0.935	54852	4
395.000	0.935	54861	9
396.000	0.936	54874	13
397.000	0.936	54881	7
398.000	0.936	54889	8
399.000	0.936	54907	18
400.000	0.936	54920	13
401.000	0.937	54937	17
402.000	0.937	54951	14
403.000	0.937	54964	13
404.000	0.937	54984	20
405.000	0.938	54998	14
406.000	0.938	55017	19
407.000	0.938	55031	14
408.000	0.938	55040	9
409.000	0.939	55047	7
410.000	0.939	55051	4
411.000	0.939	55057	6
412.000	0.939	55063	6
413.000	0.939	55070	7
414.000	0.939	55074	4
415.000	0.939	55081	7
416.000	0.939	55091	10
417.000	0.939	55097	6
418.000	0.939	55103	6
419.000	0.940	55109	6
420.000	0.940	55117	8
421.000	0.940	55124	7
422.000	0.940	55132	8
423.000	0.940	55138	6
424.000	0.940	55144	6
425.000	0.940	55152	8
426.000	0.940	55163	11
427.000	0.941	55173	10
428.000	0.941	55183	10
429.000	0.941	55194	11
430.000	0.941	55203	9
431.000	0.941	55218	15
432.000	0.942	55233	15
433.000	0.942	55241	8
434.000	0.942	55251	10
435.000	0.942	55261	10
436.000	0.942	55276	15
437.000	0.943	55288	12
438.000	0.943	55298	10
439.000	0.943	55305	7
440.000	0.943	55312	7
441.000	0.943	55321	9
442.000	0.943	55334	13
443.000	0.943	55339	5
444.000	0.944	55344	5
445.000	0.944	55345	1
446.000	0.944	55353	8
447.000	0.944	55361	8
448.000	0.944	55370	9
449.000	0.944	55386	16
450.000	0.945	55405	19
451.000	0.945	55418	13
452.000	0.945	55436	18
453.000	0.945	55449	13
454.000	0.946	55467	18
455.000	0.946	55480	13
456.000	0.946	55492	12
457.000	0.946	55506	14
458.000	0.946	55514	8
459.000	0.947	55518	4
460.000	0.947	55525	7
461.000	0.947	55531	6
462.000	0.947	55535	4
463.000	0.947	55546	11
464.000	0.947	55554	8
465.000	0.947	55560	6
466.000	0.947	55564	4
467.000	0.947	55569	5
468.000	0.948	55576	7
469.000	0.948	55581	5
470.000	0.948	55586	5
471.000	0.948	55590	4
472.000	0.948	55594	4
473.000	0.948	55603	9
474.000	0.948	55606	3
475.000	0.948	55612	6
476.000	0.948	55613	1
477.000	0.948	55618	5
478.000	0.948	55624	6
479.000	0.948	55630	6
480.000	0.949	55638	8
481.000	0.949	55640	2
482.000	0.949	55646	6
483.000	0.949	55652	6
484.000	0.949	55658	6
485.000	0.949	55662	4
486.000	0.949	55669	7
487.000	0.949	55675	6
488.000	0.949	55682	7
489.000	0.949	55686	4
490.000	0.950	55694	8
491.000	0.950	55699	5
492.000	0.950	55705	6
493.000	0.950	55716	11
494.000	0.950	55724	8
495.000	0.950	55731	7
496.000	0.950	55740	9
497.000	0.950	55746	6
498.000	0.951	55757	11
499.000	0.951	55768	11
500.000	0.951	55787	19
501.000	0.951	55801	14
502.000	0.952	55814	13
503.000	0.952	55822	8
504.000	0.952	55830	8
505.000	0.952	55845	15
506.000	0.952	55858	13
507.000	0.953	55872	14
508.000	0.953	55885	13
509.000	0.953	55896	11
510.000	0.953	55899	3
511.000	0.953	55903	4
513.000	0.953	55907	4
514.000	0.953	55910	3
515.000	0.953	55916	6
516.000	0.953	55921	5
517.000	0.954	55928	7
518.000	0.954	55935	7
519.000	0.954	55938	3
520.000	0.954	55947	9
521.000	0.954	55949	2
522.000	0.954	55956	7
523.000	0.954	55962	6
524.000	0.954	55963	1
525.000	0.954	55968	5
526.000	0.954	55977	9
527.000	0.954	55981	4
528.000	0.954	55984	3
529.000	0.955	55991	7
530.000	0.955	55992	1
531.000	0.955	55995	3
532.000	0.955	56001	6
533.000	0.955	56006	5
534.000	0.955	56015	9
535.000	0.955	56022	7
536.000	0.955	56032	10
537.000	0.955	56036	4
538.000	0.955	56043	7
539.000	0.956	56048	5
540.000	0.956	56054	6
541.000	0.956	56056	2
542.000	0.956	56063	7
543.000	0.956	56069	6
544.000	0.956	56080	11
545.000	0.956	56091	11
546.000	0.956	56098	7
547.000	0.957	56103	5
548.000	0.957	56115	12
549.000	0.957	56128	13
550.000	0.957	56140	12
551.000	0.957	56158	18
552.000	0.958	56168	10
553.000	0.958	56192	24
554.000	0.958	56207	15
555.000	0.959	56221	14
556.000	0.959	56236	15
557.000	0.959	56247	11
558.000	0.959	56256	9
559.000	0.959	56259	3
560.000	0.959	56263	4
561.000	0.959	56266	3
562.000	0.959	56270	4
563.000	0.959	56273	3
564.000	0.959	56278	5
565.000	0.960	56282	4
566.000	0.960	56285	3
567.000	0.960	56287	2
568.000	0.960	56292	5
569.000	0.960	56298	6
570.000	0.960	56303	5
571.000	0.960	56305	2
572.000	0.960	56308	3
573.000	0.960	56312	4
574.000	0.960	56314	2
575.000	0.960	56319	5
576.000	0.960	56323	4
577.000	0.960	56327	4
578.000	0.960	56330	3
579.000	0.960	56333	3
580.000	0.961	56341	8
581.000	0.961	56343	2
582.000	0.961	56348	5
583.000	0.961	56353	5
584.000	0.961	56360	7
585.000	0.961	56366	6
586.000	0.961	56370	4
587.000	0.961	56375	5
588.000	0.961	56378	3
589.000	0.961	56382	4
590.000	0.961	56386	4
591.000	0.961	56388	2
592.000	0.961	56392	4
593.000	0.961	56395	3
594.000	0.962	56400	5
595.000	0.962	56403	3
596.000	0.962	56405	2
597.000	0.962	56409	4
598.000	0.962	56419	10
599.000	0.962	56430	11
600.000	0.962	56441	11
601.000	0.962	56453	12
602.000	0.963	56465	12
603.000	0.963	56477	12
604.000	0.963	56490	13
605.000	0.963	56502	12
606.000	0.964	56514	12
607.000	0.964	56517	3
608.000	0.964	56522	5
609.000	0.964	56523	1
610.000	0.964	56526	3
611.000	0.964	56532	6
612.000	0.964	56534	2
613.000	0.964	56538	4
614.000	0.964	56543	5
615.000	0.964	56545	2
616.000	0.964	56550	5
617.000	0.964	56552	2
618.000	0.964	56553	1
619.000	0.964	56560	7
620.000	0.964	56564	4
621.000	0.964	56569	5
622.000	0.965	56573	4
623.000	0.965	56577	4
624.000	0.965	56578	1
625.000	0.965	56579	1
626.000	0.965	56581	2
627.000	0.965	56583	2
628.000	0.965	56585	2
629.000	0.965	56587	2
630.000	0.965	56591	4
631.000	0.965	56594	3
632.000	0.965	56595	1
633.000	0.965	56596	1
634.000	0.965	56597	1
635.000	0.965	56600	3
636.000	0.965	56603	3
637.000	0.965	56605	2
638.000	0.965	56607	2
639.000	0.965	56612	5
640.000	0.965	56616	4
641.000	0.965	56619	3
642.000	0.965	56622	3
643.000	0.965	56624	2
644.000	0.965	56626	2
645.000	0.966	56631	5
646.000	0.966	56636	5
647.000	0.966	56638	2
648.000	0.966	56647	9
649.000	0.966	56656	9
650.000	0.966	56659	3
651.000	0.966	56664	5
652.000	0.966	56671	7
653.000	0.966	56679	8
654.000	0.966	56683	4
655.000	0.966	56688	5
656.000	0.967	56696	8
657.000	0.967	56699	3
658.000	0.967	56706	7
659.000	0.967	56709	3
660.000	0.967	56713	4
661.000	0.967	56714	1
662.000	0.967	56717	3
663.000	0.967	56721	4
664.000	0.967	56726	5
665.000	0.967	56728	2
666.000	0.967	56732	4
667.000	0.967	56737	5
668.000	0.967	56738	1
669.000	0.967	56742	4
670.000	0.967	56745	3
671.000	0.967	56746	1
672.000	0.968	56749	3
673.000	0.968	56752	3
674.000	0.968	56753	1
675.000	0.968	56754	1
676.000	0.968	56756	2
677.000	0.968	56758	2
678.000	0.968	56765	7
679.000	0.968	56767	2
681.000	0.968	56769	2
682.000	0.968	56775	6
683.000	0.968	56778	3
684.000	0.968	56780	2
685.000	0.968	56782	2
686.000	0.968	56784	2
687.000	0.968	56787	3
688.000	0.968	56789	2
689.000	0.968	56792	3
691.000	0.968	56794	2
693.000	0.968	56797	3
694.000	0.968	56802	5
695.000	0.968	56803	1
697.000	0.968	56804	1
698.000	0.968	56805	1
699.000	0.969	56809	4
700.000	0.969	56812	3
701.000	0.969	56820	8
702.000	0.969	56822	2
703.000	0.969	56827	5
704.000	0.969	56828	1
705.000	0.969	56832	4
706.000	0.969	56835	3
707.000	0.969	56836	1
708.000	0.969	56837	1
709.000	0.969	56840	3
710.000	0.969	56843	3
711.000	0.969	56846	3
712.000	0.969	56847	1
713.000	0.969	56849	2
714.000	0.969	56852	3
716.000	0.969	56855	3
717.000	0.969	56858	3
718.000	0.969	56864	6
719.000	0.970	56868	4
720.000	0.970	56871	3
721.000	0.970	56873	2
722.000	0.970	56876	3
723.000	0.970	56879	3
724.000	0.970	56880	1
725.000	0.970	56883	3
726.000	0.970	56886	3
727.000	0.970	56889	3
728.000	0.970	56894	5
729.000	0.970	56898	4
730.000	0.970	56901	3
731.000	0.970	56902	1
732.000	0.970	56906	4
733.000	0.970	56909	3
734.000	0.970	56910	1
735.000	0.970	56914	4
736.000	0.970	56917	3
737.000	0.970	56919	2
738.000	0.970	56922	3
739.000	0.971	56924	2
740.000	0.971	56926	2
741.000	0.971	56927	1
742.000	0.971	56929	2
745.000	0.971	56930	1
746.000	0.971	56932	2
748.000	0.971	56936	4
749.000	0.971	56939	3
750.000	0.971	56940	1
751.000	0.971	56943	3
752.000	0.971	56944	1
753.000	0.971	56947	3
755.000	0.971	56949	2
756.000	0.971	56951	2
758.000	0.971	56955	4
759.000	0.971	56956	1
760.000	0.971	56960	4
761.000	0.971	56965	5
762.000	0.971	56968	3
764.000	0.971	56970	2
765.000	0.971	56974	4
766.000	0.971	56975	1
767.000	0.971	56977	2
768.000	0.971	56978	1
769.000	0.971	56980	2
770.000	0.971	56982	2
771.000	0.972	56983	1
772.000	0.972	56985	2
774.000	0.972	56989	4
775.000	0.972	56991	2
778.000	0.972	56992	1
780.000	0.972	56995	3
781.000	0.972	56998	3
782.000	0.972	57003	5
783.000	0.972	57005	2
784.000	0.972	57008	3
785.000	0.972	57010	2
788.000	0.972	57013	3
789.000	0.972	57017	4
790.000	0.972	57019	2
792.000	0.972	57022	3
794.000	0.972	57023	1
795.000	0.972	57027	4
796.000	0.972	57030	3
797.000	0.972	57033	3
798.000	0.972	57034	1
799.000	0.972	57036	2
800.000	0.972	57038	2
801.000	0.972	57040	2
802.000	0.973	57043	3
804.000	0.973	57045	2
805.000	0.973	57047	2
806.000	0.973	57049	2
808.000	0.973	57050	1
809.000	0.973	57054	4
810.000	0.973	57057	3
811.000	0.973	57058	1
813.000	0.973	57059	1
814.000	0.973	57061	2
815.000	0.973	57063	2
816.000	0.973	57064	1
817.000	0.973	57066	2
818.000	0.973	57068	2
819.000	0.973	57069	1
820.000	0.973	57071	2
822.000	0.973	57072	1
823.000	0.973	57075	3
824.000	0.973	57078	3
825.000	0.973	57081	3
826.000	0.973	57083	2
827.000	0.973	57085	2
828.000	0.973	57087	2
829.000	0.973	57089	2
830.000	0.973	57096	7
831.000	0.973	57099	3
832.000	0.974	57101	2
833.000	0.974	57103	2
834.000	0.974	57105	2
835.000	0.974	57107	2
836.000	0.974	57108	1
837.000	0.974	57109	1
838.000	0.974	57111	2
839.000	0.974	57113	2
840.000	0.974	57116	3
841.000	0.974	57118	2
842.000	0.974	57121	3
843.000	0.974	57123	2
846.000	0.974	57125	2
848.000	0.974	57130	5
850.000	0.974	57131	1
851.000	0.974	57133	2
853.000	0.974	57138	5
854.000	0.974	57139	1
855.000	0.974	57140	1
856.000	0.974	57141	1
857.000	0.974	57142	1
858.000	0.974	57145	3
859.000	0.974	57147	2
860.000	0.974	57148	1
861.000	0.974	57149	1
862.000	0.974	57152	3
863.000	0.974	57156	4
864.000	0.974	57157	1
865.000	0.974	57158	1
867.000	0.975	57159	1
868.000	0.975	57161	2
869.000	0.975	57162	1
871.000	0.975	57163	1
872.000	0.975	57164	1
873.000	0.975	57165	1
875.000	0.975	57168	3
876.000	0.975	57169	1
877.000	0.975	57172	3
878.000	0.975	57176	4
879.000	0.975	57179	3
880.000	0.975	57180	1
882.000	0.975	57182	2
883.000	0.975	57183	1
886.000	0.975	57186	3
887.000	0.975	57187	1
888.000	0.975	57189	2
889.000	0.975	57191	2
890.000	0.975	57193	2
891.000	0.975	57194	1
893.000	0.975	57197	3
894.000	0.975	57198	1
895.000	0.975	57200	2
896.000	0.975	57202	2
897.000	0.975	57206	4
898.000	0.975	57207	1
900.000	0.975	57210	3
901.000	0.975	57211	1
902.000	0.975	57214	3
904.000	0.975	57215	1
906.000	0.975	57216	1
907.000	0.976	57219	3
910.000	0.976	57220	1
911.000	0.976	57223	3
912.000	0.976	57224	1
913.000	0.976	57227	3
914.000	0.976	57229	2
915.000	0.976	57230	1
916.000	0.976	57231	1
917.000	0.976	57232	1
918.000	0.976	57233	1
919.000	0.976	57236	3
921.000	0.976	57239	3
923.000	0.976	57240	1
924.000	0.976	57241	1
925.000	0.976	57243	2
927.000	0.976	57245	2
929.000	0.976	57246	1
930.000	0.976	57249	3
931.000	0.976	57250	1
932.000	0.976	57251	1
